# wavelength[angstrom] transmittance
 9902.8  0.0035
 9907.3  0.0035
 9911.9  0.0029
 9916.4  0.0019
 9920.9  0.0007
 9925.5  0.0000
 9930.0  0.0000
 9934.5  0.0010
 9939.1  0.0020
 9943.6  0.0026
 9948.1  0.0029
 9952.7  0.0033
 9957.2  0.0040
 9961.7  0.0051
 9966.3  0.0062
 9970.8  0.0067
 9975.4  0.0068
 9979.9  0.0076
 9984.4  0.0094
 9989.0  0.0115
 9993.5  0.0140
 9998.0  0.0180
10002.6  0.0243
10007.1  0.0342
10011.7  0.0496
10016.2  0.0706
10020.7  0.0953
10025.3  0.1231
10029.8  0.1547
10034.4  0.1914
10038.9  0.2337
10043.4  0.2806
10048.0  0.3305
10052.5  0.3839
10057.0  0.4426
10061.6  0.5074
10066.1  0.5775
10070.7  0.6499
10075.2  0.7179
10079.7  0.7737
10084.3  0.8117
10088.8  0.8315
10093.4  0.8362
10097.9  0.8312
10102.4  0.8191
10107.0  0.7997
10111.5  0.7741
10116.1  0.7440
10120.6  0.7100
10125.1  0.6722
10129.7  0.6305
10134.2  0.5859
10138.8  0.5390
10143.3  0.4876
10147.9  0.4285
10152.4  0.3625
10156.9  0.2937
10161.5  0.2265
10166.0  0.1653
10170.6  0.1150
10175.1  0.0785
10179.6  0.0555
10184.2  0.0423
10188.7  0.0353
10193.3  0.0312
10197.8  0.0268
10202.4  0.0214
10206.9  0.0167
10211.4  0.0139
10216.0  0.0127
10220.5  0.0120
10225.1  0.0101
10229.6  0.0072
10234.2  0.0047
10238.7  0.0034
10243.3  0.0032
10247.8  0.0040
10252.3  0.0046
10256.9  0.0043
10261.4  0.0037
10266.0  0.0036
10270.5  0.0032
10275.1  0.0019
10279.6  0.0011
10284.2  0.0002
